XLabel,Wavenumber
YLabel,%Transmittance
FileType,%Transmittance
DisplayDirection,20300
PeakDirection,20311
399.203040,183.893471
401.131557,183.893471
403.060075,183.893471
404.988592,183.893471
406.917109,183.893471
408.845626,183.893471
410.774143,183.893471
412.702660,183.893471
414.631177,183.893471
416.559694,183.893471
418.488211,183.893471
420.416728,183.893471
422.345246,183.893471
424.273763,183.893471
426.202280,183.893471
428.130797,79.591751
430.059314,78.599617
431.987831,78.599617
433.916348,78.599617
435.844865,78.599617
437.773382,78.599617
439.701900,78.599617
441.630417,78.599617
443.558934,78.599617
445.487451,78.599617
447.415968,78.599617
449.344485,78.599617
451.273002,78.599617
453.201519,78.599617
455.130036,64.448006
457.058553,66.648267
458.987071,82.727856
460.915588,82.727856
462.844105,82.727856
464.772622,82.727856
466.701139,82.727856
468.629656,82.727856
470.558173,82.727856
472.486690,82.727856
474.415207,82.727856
476.343724,82.727856
478.272242,82.727856
480.200759,82.727856
482.129276,82.727856
484.057793,82.727856
485.986310,82.727856
487.914827,82.727856
489.843344,82.727856
491.771861,82.727856
493.700378,120.957601
495.628896,116.176001
497.557413,110.005101
499.485930,110.005101
501.414447,110.005101
503.342964,110.005101
505.271481,110.005101
507.199998,110.005101
509.128515,110.005101
511.057032,110.005101
512.985549,125.960580
514.914067,100.889356
516.842584,91.008337
518.771101,85.317987
520.699618,79.767944
522.628135,73.801068
524.556652,69.337294
526.485169,67.607684
528.413686,66.915693
530.342203,66.022810
532.270720,65.509130
534.199238,65.511458
536.127755,65.208370
538.056272,63.992264
539.984789,61.675691
541.913306,58.890041
543.841823,57.872071
545.770340,59.966352
547.698857,62.450061
549.627374,61.327885
551.555892,57.044865
553.484409,52.704143
555.412926,49.311357
557.341443,46.414506
559.269960,44.121636
561.198477,43.170385
563.126994,43.997965
565.055511,46.391598
566.984028,49.878402
568.912545,53.853220
570.841063,57.581284
572.769580,60.706286
574.698097,63.406406
576.626614,65.959620
578.555131,68.358059
580.483648,70.231794
582.412165,71.235240
584.340682,71.582102
586.269199,71.781010
588.197716,72.013355
590.126234,72.000641
592.054751,71.513071
593.983268,70.863689
595.911785,70.504225
597.840302,70.430758
599.768819,70.356864
601.697336,70.098958
603.625853,69.720276
605.554370,69.461000
607.482888,69.472341
609.411405,69.622682
611.339922,69.694501
613.268439,69.549816
615.196956,69.160716
617.125473,68.831423
619.053990,68.971763
620.982507,69.580965
622.911024,70.432779
624.839541,71.377847
626.768059,72.404458
628.696576,73.595557
630.625093,74.890771
632.553610,76.023071
634.482127,76.792912
636.410644,77.219561
638.339161,77.445807
640.267678,77.751334
642.196195,78.430427
644.124712,79.485826
646.053230,80.631936
647.981747,81.639231
649.910264,82.522644
651.838781,83.341541
653.767298,84.006772
655.695815,84.423954
657.624332,84.676370
659.552849,84.873664
661.481366,84.954201
663.409883,84.844758
665.338401,84.589094
667.266918,84.070544
669.195435,82.984031
671.123952,81.514718
673.052469,80.093426
674.980986,79.224091
676.909503,79.307142
678.838020,79.774147
680.766537,79.444104
682.695055,77.779279
684.623572,75.391376
686.552089,73.649743
688.480606,73.499746
690.409123,74.445707
692.337640,75.260857
694.266157,75.343152
696.194674,74.709849
698.123191,73.349113
700.051708,71.051754
701.980226,67.421462
703.908743,61.916321
705.837260,54.472456
707.765777,46.488415
709.694294,40.747671
711.622811,39.751792
713.551328,44.061760
715.479845,52.202546
717.408362,61.870395
719.336879,70.989379
721.265397,78.037581
723.193914,82.456458
725.122431,84.766296
727.050948,85.824194
728.979465,86.205356
730.907982,86.183014
732.836499,85.917807
734.765016,85.516880
736.693533,84.990986
738.622051,84.279416
740.550568,83.318629
742.479085,82.076085
744.407602,80.542634
746.336119,78.698866
748.264636,76.563231
750.193153,74.354945
752.121670,72.549128
754.050187,71.672833
755.978704,71.998695
757.907222,73.386402
759.835739,75.361313
761.764256,77.382074
763.692773,79.069189
765.621290,80.252553
767.549807,80.939303
769.478324,81.300418
771.406841,81.578373
773.335358,81.953607
775.263875,82.497667
777.192393,83.168423
779.120910,83.805390
781.049427,84.215590
782.977944,84.291360
784.906461,84.003800
786.834978,83.292081
788.763495,82.020409
790.692012,80.020273
792.620529,77.092097
794.549047,73.094839
796.477564,68.257258
798.406081,63.461559
800.334598,59.917300
802.263115,58.134097
804.191632,57.378155
806.120149,56.535028
808.048666,55.309645
809.977183,54.297607
811.905700,54.171670
813.834218,55.137047
815.762735,57.007060
817.691252,59.452706
819.619769,62.130855
821.548286,64.757081
823.476803,67.187382
825.405320,69.479728
827.333837,71.799241
829.262354,74.195931
831.190871,76.528693
833.119389,78.584373
835.047906,80.186063
836.976423,81.262366
838.904940,81.879478
840.833457,82.137109
842.761974,82.068128
844.690491,81.662832
846.619008,80.954341
848.547525,80.116527
850.476043,79.498884
852.404560,79.518149
854.333077,80.423134
856.261594,82.084156
858.190111,84.041408
860.118628,85.823851
862.047145,87.227730
863.975662,88.351382
865.904179,89.449223
867.832696,90.705441
869.761214,92.075640
871.689731,93.332995
873.618248,94.258927
875.546765,94.785990
877.475282,94.994935
879.403799,95.015506
881.332316,94.958416
883.260833,94.897388
885.189350,94.840449
887.117867,94.740882
889.046385,94.568431
890.974902,94.347434
892.903419,94.141271
894.831936,94.010502
896.760453,93.966203
898.688970,93.972246
900.617487,93.975272
902.546004,93.898166
904.474521,93.638205
906.403039,93.106038
908.331556,92.267232
910.260073,91.173587
912.188590,90.010122
914.117107,89.133287
916.045624,88.958969
917.974141,89.625021
919.902658,90.813991
921.831175,92.000676
923.759692,92.827949
925.688210,93.236221
927.616727,93.334831
929.545244,93.224036
931.473761,92.944324
933.402278,92.560681
935.330795,92.212330
937.259312,92.009105
939.187829,91.918905
941.116346,91.834826
943.044863,91.721798
944.973381,91.615474
946.901898,91.522043
948.830415,91.422646
950.758932,91.333368
952.687449,91.274837
954.615966,91.215032
956.544483,91.109193
958.473000,90.983551
960.401517,90.922113
962.330034,90.989006
964.258552,91.198718
966.187069,91.513629
968.115586,91.855159
970.044103,92.154591
971.972620,92.398039
973.901137,92.619450
975.829654,92.862347
977.758171,93.151688
979.686688,93.478535
981.615206,93.800510
983.543723,94.076072
985.472240,94.288369
987.400757,94.436675
989.329274,94.528247
991.257791,94.563162
993.186308,94.536474
995.114825,94.456550
997.043342,94.317791
998.971859,94.112799
1000.900377,93.905198
1002.828894,93.763496
1004.757411,93.598519
1006.685928,93.191826
1008.614445,92.381810
1010.542962,91.031152
1012.471479,88.665564
1014.399996,84.752956
1016.328513,80.326313
1018.257030,78.229537
1020.185548,79.715385
1022.114065,82.276209
1024.042582,83.181997
1025.971099,83.233535
1027.899616,84.727382
1029.828133,87.702476
1031.756650,90.331779
1033.685167,91.579721
1035.613684,91.820173
1037.542202,91.721491
1039.470719,91.630118
1041.399236,91.656422
1043.327753,91.799408
1045.256270,91.984285
1047.184787,92.107239
1049.113304,92.075832
1051.041821,91.860692
1052.970338,91.496660
1054.898855,90.989318
1056.827373,90.270242
1058.755890,89.210052
1060.684407,87.594868
1062.612924,85.147685
1064.541441,81.688949
1066.469958,77.518398
1068.398475,73.861412
1070.326992,72.417835
1072.255509,73.712746
1074.184026,76.424263
1076.112544,78.947470
1078.041061,80.828892
1079.969578,82.319470
1081.898095,83.477428
1083.826612,84.084390
1085.755129,83.900755
1087.683646,82.809700
1089.612163,80.796770
1091.540680,77.879241
1093.469198,74.176524
1095.397715,70.056177
1097.326232,66.082644
1099.254749,62.695426
1101.183266,59.942226
1103.111783,57.593375
1105.040300,55.595460
1106.968817,54.291569
1108.897334,54.139332
1110.825851,55.290245
1112.754369,57.502553
1114.682886,60.402079
1116.611403,63.741415
1118.539920,67.389185
1120.468437,71.173304
1122.396954,74.800110
1124.325471,77.921295
1126.253988,80.280035
1128.182505,81.799653
1130.111022,82.540220
1132.039540,82.625489
1133.968057,82.227560
1135.896574,81.558128
1137.825091,80.819573
1139.753608,80.178807
1141.682125,79.796340
1143.610642,79.814724
1145.539159,80.265745
1147.467676,81.045184
1149.396194,82.012029
1151.324711,83.044530
1153.253228,84.004350
1155.181745,84.766497
1157.110262,85.315391
1159.038779,85.727018
1160.967296,86.036410
1162.895813,86.187753
1164.824330,86.135388
1166.752847,85.899532
1168.681365,85.451939
1170.609882,84.655233
1172.538399,83.540449
1174.466916,82.639257
1176.395433,82.683412
1178.323950,83.864409
1180.252467,85.703878
1182.180984,87.619170
1184.109501,89.301135
1186.038018,90.646296
1187.966536,91.625007
1189.895053,92.263961
1191.823570,92.644939
1193.752087,92.859694
1195.680604,92.967066
1197.609121,92.995142
1199.537638,92.953476
1201.466155,92.834877
1203.394672,92.662616
1205.323189,92.549061
1207.251707,92.634364
1209.180224,92.931859
1211.108741,93.282697
1213.037258,93.495663
1214.965775,93.490359
1216.894292,93.268356
1218.822809,92.837468
1220.751326,92.221682
1222.679843,91.461150
1224.608361,90.599207
1226.536878,89.717019
1228.465395,88.919049
1230.393912,88.259937
1232.322429,87.714924
1234.250946,87.207164
1236.179463,86.639065
1238.107980,85.900295
1240.036497,84.891520
1241.965014,83.576050
1243.893532,82.016589
1245.822049,80.361087
1247.750566,78.781888
1249.679083,77.404476
1251.607600,76.258291
1253.536117,75.250579
1255.464634,74.178026
1257.393151,72.756702
1259.321668,70.683489
1261.250185,67.748948
1263.178703,63.930380
1265.107220,59.426748
1267.035737,54.733886
1268.964254,50.626359
1270.892771,47.945583
1272.821288,47.318542
1274.749805,48.898803
1276.678322,52.381486
1278.606839,57.217334
1280.535357,62.738492
1282.463874,68.282591
1284.392391,73.358357
1286.320908,77.738577
1288.249425,81.300193
1290.177942,83.932086
1292.106459,85.686691
1294.034976,86.883574
1295.963493,87.937060
1297.892010,89.043872
1299.820528,90.074313
1301.749045,90.792184
1303.677562,91.056010
1305.606079,90.779911
1307.534596,89.797830
1309.463113,87.939320
1311.391630,85.531611
1313.320147,83.822240
1315.248664,84.118283
1317.177181,86.275384
1319.105699,88.884207
1321.034216,90.794762
1322.962733,91.907533
1324.891250,92.592912
1326.819767,93.085218
1328.748284,93.451805
1330.676801,93.702858
1332.605318,93.840573
1334.533835,93.872613
1336.462353,93.812165
1338.390870,93.688288
1340.319387,93.554912
1342.247904,93.431770
1344.176421,93.275539
1346.104938,93.048140
1348.033455,92.746361
1349.961972,92.389566
1351.890489,91.998142
1353.819006,91.575527
1355.747524,91.123912
1357.676041,90.649354
1359.604558,90.104194
1361.533075,89.413412
1363.461592,88.699212
1365.390109,88.221593
1367.318626,87.981300
1369.247143,87.790177
1371.175660,87.465123
1373.104177,86.889368
1375.032695,86.143604
1376.961212,85.549096
1378.889729,85.327551
1380.818246,85.502379
1382.746763,86.005186
1384.675280,86.782648
1386.603797,87.838403
1388.532314,88.977530
1390.460831,89.902614
1392.389349,90.646181
1394.317866,91.355130
1396.246383,91.961817
1398.174900,92.286682
1400.103417,92.288159
1402.031934,91.988845
1403.960451,91.324669
1405.888968,90.258357
1407.817485,88.960666
1409.746002,87.621461
1411.674520,86.449068
1413.603037,85.770651
1415.531554,85.812459
1417.460071,86.698568
1419.388588,88.146900
1421.317105,89.190260
1423.245622,89.448353
1425.174139,89.110698
1427.102656,88.300857
1429.031173,87.028421
1430.959691,85.527978
1432.888208,84.329371
1434.816725,83.703012
1436.745242,83.673912
1438.673759,84.007688
1440.602276,84.318749
1442.530793,84.450321
1444.459310,84.243984
1446.387827,83.331498
1448.316344,81.663313
1450.244862,80.267908
1452.173379,80.093076
1454.101896,81.009560
1456.030413,82.471797
1457.958930,83.611041
1459.887447,83.935220
1461.815964,84.014423
1463.744481,84.239163
1465.672998,84.783613
1467.601516,85.558498
1469.530033,86.443401
1471.458550,87.561547
1473.387067,88.895227
1475.315584,89.943474
1477.244101,90.546267
1479.172618,90.835431
1481.101135,90.827470
1483.029652,90.542060
1484.958169,90.035477
1486.886687,89.209788
1488.815204,87.823061
1490.743721,86.274090
1492.672238,85.231515
1494.600755,84.373257
1496.529272,82.991039
1498.457789,80.859820
1500.386306,78.634356
1502.314823,76.696010
1504.243340,74.653113
1506.171858,71.180600
1508.100375,66.585926
1510.028892,64.398094
1511.957409,63.777396
1513.885926,63.343171
1515.814443,62.588480
1517.742960,61.450033
1519.671477,60.324094
1521.599994,59.713072
1523.528512,60.139501
1525.457029,61.819581
1527.385546,64.443194
1529.314063,67.368014
1531.242580,70.699028
1533.171097,75.007714
1535.099614,79.193277
1537.028131,82.111157
1538.956648,84.938003
1540.885165,88.887095
1542.813683,91.967920
1544.742200,93.478963
1546.670717,94.440085
1548.599234,95.236254
1550.527751,95.972744
1552.456268,96.610170
1554.384785,97.127475
1556.313302,97.578170
1558.241819,97.953087
1560.170336,98.047886
1562.098854,97.927650
1564.027371,97.697884
1565.955888,97.258880
1567.884405,96.295017
1569.812922,94.509121
1571.741439,92.385619
1573.669956,90.318060
1575.598473,88.232765
1577.526990,87.107139
1579.455508,87.606242
1581.384025,88.925025
1583.312542,90.436503
1585.241059,91.840492
1587.169576,92.983679
1589.098093,93.756799
1591.026610,94.098380
1592.955127,94.018331
1594.883644,93.471986
1596.812161,92.355279
1598.740679,90.702322
1600.669196,88.798971
1602.597713,87.083970
1604.526230,85.798909
1606.454747,84.924461
1608.383264,84.711141
1610.311781,85.596223
1612.240298,87.434511
1614.168815,89.899564
1616.097332,92.972883
1618.025850,95.765403
1619.954367,97.337944
1621.882884,98.204465
1623.811401,98.845886
1625.739918,99.270292
1627.668435,99.493284
1629.596952,99.591673
1631.525469,99.617930
1633.453986,99.602928
1635.382504,99.511102
1637.311021,99.331575
1639.239538,99.173380
1641.168055,99.055394
1643.096572,98.944481
1645.025089,98.807660
1646.953606,98.626988
1648.882123,98.481816
1650.810640,98.388967
1652.739157,98.227877
1654.667675,98.015175
1656.596192,97.891835
1658.524709,97.802263
1660.453226,97.670272
1662.381743,97.439170
1664.310260,97.143571
1666.238777,96.850897
1668.167294,96.496764
1670.095811,96.057954
1672.024328,95.713686
1673.952846,95.499242
1675.881363,95.325549
1677.809880,95.189339
1679.738397,95.092468
1681.666914,94.962350
1683.595431,94.607042
1685.523948,93.987244
1687.452465,93.348691
1689.380982,92.664937
1691.309500,91.938437
1693.238017,91.188078
1695.166534,90.212973
1697.095051,88.762382
1699.023568,86.594267
1700.952085,83.792552
1702.880602,80.745189
1704.809119,76.831769
1706.737636,71.789024
1708.666153,66.834277
1710.594671,62.755201
1712.523188,59.555757
1714.451705,57.401267
1716.380222,57.094462
1718.308739,59.211261
1720.237256,62.349931
1722.165773,66.022566
1724.094290,70.464523
1726.022807,75.096507
1727.951324,79.252299
1729.879842,82.811549
1731.808359,85.962920
1733.736876,88.969009
1735.665393,91.282170
1737.593910,92.688300
1739.522427,93.805226
1741.450944,94.864219
1743.379461,95.766567
1745.307978,96.556899
1747.236495,97.375218
1749.165013,98.315886
1751.093530,99.234178
1753.022047,99.883771
1754.950564,100.307607
1756.879081,100.623368
1758.807598,100.852701
1760.736115,100.999086
1762.664632,101.084659
1764.593149,101.109704
1766.521667,101.061358
1768.450184,100.913033
1770.378701,100.586886
1772.307218,100.041169
1774.235735,99.506457
1776.164252,99.202542
1778.092769,99.144121
1780.021286,99.342265
1781.949803,99.741972
1783.878320,100.194860
1785.806838,100.595017
1787.735355,100.904400
1789.663872,101.135694
1791.592389,101.316828
1793.520906,101.451516
1795.449423,101.551407
1797.377940,101.635941
1799.306457,101.702046
1801.234974,101.751996
1803.163491,101.807112
1805.092009,101.867332
1807.020526,101.911381
1808.949043,101.925932
1810.877560,101.914561
1812.806077,101.893683
1814.734594,101.871625
1816.663111,101.847719
1818.591628,101.831669
1820.520145,101.829353
1822.448663,101.824311
1824.377180,101.809733
1826.305697,101.808642
1828.234214,101.826810
1830.162731,101.840082
1832.091248,101.848379
1834.019765,101.867507
1835.948282,101.890857
1837.876799,101.905072
1839.805316,101.908168
1841.733834,101.902009
1843.662351,101.887065
1845.590868,101.872061
1847.519385,101.863814
1849.447902,101.851873
1851.376419,101.824976
1853.304936,101.787183
1855.233453,101.752370
1857.161970,101.721393
1859.090487,101.678931
1861.019005,101.618213
1862.947522,101.547736
1864.876039,101.466431
1866.804556,101.348911
1868.733073,101.189485
1870.661590,101.050551
1872.590107,100.962160
1874.518624,100.890741
1876.447141,100.815972
1878.375659,100.745472
1880.304176,100.692807
1882.232693,100.656933
1884.161210,100.616375
1886.089727,100.549816
1888.018244,100.451553
1889.946761,100.331678
1891.875278,100.215834
1893.803795,100.116235
1895.732312,100.020161
1897.660830,99.920400
1899.589347,99.837739
1901.517864,99.805555
1903.446381,99.833182
1905.374898,99.901436
1907.303415,99.998543
1909.231932,100.125367
1911.160449,100.270269
1913.088966,100.414279
1915.017483,100.553092
1916.946001,100.691371
1918.874518,100.817987
1920.803035,100.910804
1922.731552,100.971682
1924.660069,101.026735
1926.588586,101.094812
1928.517103,101.170211
1930.445620,101.237134
1932.374137,101.293356
1934.302655,101.349971
1936.231172,101.403700
1938.159689,101.436809
1940.088206,101.441969
1942.016723,101.423408
1943.945240,101.394794
1945.873757,101.374611
1947.802274,101.363822
1949.730791,101.347823
1951.659308,101.315710
1953.587826,101.265588
1955.516343,101.199150
1957.444860,101.125164
1959.373377,101.059867
1961.301894,101.011088
1963.230411,100.975413
1965.158928,100.953334
1967.087445,100.952085
1969.015962,100.975378
1970.944479,101.014625
1972.872997,101.047912
1974.801514,101.055928
1976.730031,101.042193
1978.658548,101.025690
1980.587065,101.021815
1982.515582,101.031164
1984.444099,101.036133
1986.372616,101.024579
1988.301133,101.003843
1990.229650,100.975429
1992.158168,100.940006
1994.086685,100.921305
1996.015202,100.927801
1997.943719,100.930406
1999.872236,100.907751
2001.800753,100.875346
2003.729270,100.855133
2005.657787,100.842956
2007.586304,100.820237
2009.514822,100.776594
2011.443339,100.719328
2013.371856,100.665045
2015.300373,100.614613
2017.228890,100.555142
2019.157407,100.488214
2021.085924,100.426605
2023.014441,100.373039
2024.942958,100.319861
2026.871475,100.257903
2028.799993,100.180304
2030.728510,100.084827
2032.657027,99.981724
2034.585544,99.886413
2036.514061,99.799755
2038.442578,99.711051
2040.371095,99.612542
2042.299612,99.506984
2044.228129,99.401866
2046.156646,99.289436
2048.085164,99.152651
2050.013681,98.991420
2051.942198,98.817567
2053.870715,98.633900
2055.799232,98.438324
2057.727749,98.239951
2059.656266,98.051270
2061.584783,97.867387
2063.513300,97.678771
2065.441818,97.498898
2067.370335,97.348300
2069.298852,97.223043
2071.227369,97.108878
2073.155886,97.010435
2075.084403,96.938531
2077.012920,96.880930
2078.941437,96.819092
2080.869954,96.760623
2082.798471,96.720237
2084.726989,96.689199
2086.655506,96.652032
2088.584023,96.610055
2090.512540,96.570398
2092.441057,96.529943
2094.369574,96.475555
2096.298091,96.392941
2098.226608,96.282495
2100.155125,96.160092
2102.083642,96.033461
2104.012160,95.895286
2105.940677,95.740497
2107.869194,95.566722
2109.797711,95.364407
2111.726228,95.130110
2113.654745,94.872991
2115.583262,94.591276
2117.511779,94.268321
2119.440296,93.896516
2121.368814,93.478089
2123.297331,93.010622
2125.225848,92.498118
2127.154365,91.957401
2129.082882,91.391928
2131.011399,90.789293
2132.939916,90.150267
2134.868433,89.489497
2136.796950,88.820315
2138.725467,88.154584
2140.653985,87.500805
2142.582502,86.866391
2144.511019,86.258936
2146.439536,85.676380
2148.368053,85.119938
2150.296570,84.606850
2152.225087,84.136247
2154.153604,83.675298
2156.082121,83.199865
2158.010638,82.710050
2159.939156,82.203319
2161.867673,81.667409
2163.796190,81.099224
2165.724707,80.513463
2167.653224,79.932754
2169.581741,79.369677
2171.510258,78.814154
2173.438775,78.245064
2175.367292,77.648454
2177.295810,77.017112
2179.224327,76.349676
2181.152844,75.645818
2183.081361,74.888765
2185.009878,74.055580
2186.938395,73.144437
2188.866912,72.171277
2190.795429,71.150170
2192.723946,70.084077
2194.652463,68.970651
2196.580981,67.813200
2198.509498,66.616329
2200.438015,65.380948
2202.366532,64.110854
2204.295049,62.810710
2206.223566,61.476590
2208.152083,60.096948
2210.080600,58.654527
2212.009117,57.128482
2213.937634,55.498478
2215.866152,53.749607
2217.794669,51.875654
2219.723186,49.873797
2221.651703,47.728701
2223.580220,45.413781
2225.508737,42.906256
2227.437254,40.207376
2229.365771,37.348557
2231.294288,34.398750
2233.222806,31.459447
2235.151323,28.640667
2237.079840,26.039356
2239.008357,23.743810
2240.936874,21.836981
2242.865391,20.371021
2244.793908,19.347691
2246.722425,18.727477
2248.650942,18.443539
2250.579459,18.413841
2252.507977,18.555766
2254.436494,18.804649
2256.365011,19.129166
2258.293528,19.523196
2260.222045,19.984061
2262.150562,20.518812
2264.079079,21.155020
2266.007596,21.922850
2267.936113,22.838026
2269.864630,23.906998
2271.793148,25.136285
2273.721665,26.542924
2275.650182,28.148679
2277.578699,29.959227
2279.507216,31.962001
2281.435733,34.147150
2283.364250,36.514036
2285.292767,39.059962
2287.221284,41.771059
2289.149801,44.616658
2291.078319,47.557142
2293.006836,50.552126
2294.935353,53.560550
2296.863870,56.545657
2298.792387,59.478177
2300.720904,62.323947
2302.649421,65.039090
2304.577938,67.584965
2306.506455,69.947455
2308.434973,72.128398
2310.363490,74.127434
2312.292007,75.935888
2314.220524,77.535520
2316.149041,78.917893
2318.077558,80.113663
2320.006075,81.184411
2321.934592,82.181321
2323.863109,83.097494
2325.791626,83.873620
2327.720144,84.490342
2329.648661,85.010743
2331.577178,85.505865
2333.505695,86.001688
2335.434212,86.513045
2337.362729,87.051259
2339.291246,87.588791
2341.219763,88.094441
2343.148280,88.611595
2345.076797,89.155661
2347.005315,89.613033
2348.933832,89.941034
2350.862349,90.220711
2352.790866,90.539025
2354.719383,90.928263
2356.647900,91.383538
2358.576417,91.887575
2360.504934,92.409897
2362.433451,92.965239
2364.361969,93.598826
2366.290486,94.284282
2368.219003,94.955401
2370.147520,95.590599
2372.076037,96.189218
2374.004554,96.748868
2375.933071,97.283923
2377.861588,97.808776
2379.790105,98.315670
2381.718622,98.788511
2383.647140,99.227288
2385.575657,99.637593
2387.504174,100.016908
2389.432691,100.361728
2391.361208,100.677084
2393.289725,100.974437
2395.218242,101.256644
2397.146759,101.513694
2399.075276,101.745228
2401.003793,101.961936
2402.932311,102.163044
2404.860828,102.344912
2406.789345,102.519062
2408.717862,102.692041
2410.646379,102.847830
2412.574896,102.973406
2414.503413,103.077341
2416.431930,103.170991
2418.360447,103.261528
2420.288965,103.360458
2422.217482,103.468685
2424.145999,103.567430
2426.074516,103.643165
2428.003033,103.701617
2429.931550,103.755555
2431.860067,103.817252
2433.788584,103.896093
2435.717101,103.991929
2437.645618,104.090064
2439.574136,104.170082
2441.502653,104.225906
2443.431170,104.265248
2445.359687,104.297446
2447.288204,104.335594
2449.216721,104.385037
2451.145238,104.433926
2453.073755,104.479822
2455.002272,104.533296
2456.930789,104.589146
2458.859307,104.634015
2460.787824,104.667574
2462.716341,104.696482
2464.644858,104.729374
2466.573375,104.772765
2468.501892,104.817509
2470.430409,104.845344
2472.358926,104.854002
2474.287443,104.856952
2476.215961,104.859653
2478.144478,104.857652
2480.072995,104.854568
2482.001512,104.861801
2483.930029,104.881246
2485.858546,104.902897
2487.787063,104.917844
2489.715580,104.926927
2491.644097,104.942038
2493.572614,104.969119
2495.501132,104.990689
2497.429649,104.990632
2499.358166,104.980471
2501.286683,104.981249
2503.215200,105.001155
2505.143717,105.031446
2507.072234,105.053516
2509.000751,105.055111
2510.929268,105.036460
2512.857785,105.006562
2514.786303,104.977448
2516.714820,104.954611
2518.643337,104.938584
2520.571854,104.929596
2522.500371,104.926276
2524.428888,104.931228
2526.357405,104.945642
2528.285922,104.957990
2530.214439,104.957335
2532.142956,104.948556
2534.071474,104.944527
2535.999991,104.949317
2537.928508,104.951935
2539.857025,104.939767
2541.785542,104.915725
2543.714059,104.896338
2545.642576,104.891093
2547.571093,104.890101
2549.499610,104.883058
2551.428128,104.876071
2553.356645,104.876534
2555.285162,104.881653
2557.213679,104.883994
2559.142196,104.877178
2561.070713,104.864536
2562.999230,104.856025
2564.927747,104.849103
2566.856264,104.830448
2568.784781,104.800247
2570.713299,104.773253
2572.641816,104.754372
2574.570333,104.735048
2576.498850,104.711165
2578.427367,104.685887
2580.355884,104.659720
2582.284401,104.629131
2584.212918,104.591669
2586.141435,104.549311
2588.069952,104.509058
2589.998470,104.477763
2591.926987,104.457091
2593.855504,104.449000
2595.784021,104.457416
2597.712538,104.479699
2599.641055,104.510415
2601.569572,104.548739
2603.498089,104.589935
2605.426606,104.622549
2607.355124,104.637021
2609.283641,104.634542
2611.212158,104.634279
2613.140675,104.651685
2615.069192,104.667455
2616.997709,104.654549
2618.926226,104.623529
2620.854743,104.605233
2622.783260,104.607618
2624.711777,104.613875
2626.640295,104.612470
2628.568812,104.611803
2630.497329,104.620576
2632.425846,104.631317
2634.354363,104.634628
2636.282880,104.633128
2638.211397,104.633222
2640.139914,104.635675
2642.068431,104.638683
2643.996948,104.639257
2645.925466,104.627409
2647.853983,104.594557
2649.782500,104.551691
2651.711017,104.520451
2653.639534,104.510347
2655.568051,104.517440
2657.496568,104.529974
2659.425085,104.533656
2661.353602,104.521783
2663.282120,104.498332
2665.210637,104.477237
2667.139154,104.474556
2669.067671,104.491339
2670.996188,104.511968
2672.924705,104.520298
2674.853222,104.512867
2676.781739,104.499627
2678.710256,104.492937
2680.638773,104.493678
2682.567291,104.490536
2684.495808,104.476096
2686.424325,104.455982
2688.352842,104.434412
2690.281359,104.406289
2692.209876,104.379817
2694.138393,104.378830
2696.066910,104.402038
2697.995427,104.420101
2699.923944,104.415140
2701.852462,104.385560
2703.780979,104.340364
2705.709496,104.302395
2707.638013,104.284136
2709.566530,104.275747
2711.495047,104.264315
2713.423564,104.244492
2715.352081,104.219761
2717.280598,104.191142
2719.209116,104.152787
2721.137633,104.118438
2723.066150,104.111517
2724.994667,104.121986
2726.923184,104.124507
2728.851701,104.119948
2730.780218,104.124321
2732.708735,104.139376
2734.637252,104.151003
2736.565769,104.155031
2738.494287,104.166736
2740.422804,104.192031
2742.351321,104.214227
2744.279838,104.222389
2746.208355,104.225359
2748.136872,104.222409
2750.065389,104.197471
2751.993906,104.156027
2753.922423,104.119985
2755.850940,104.098461
2757.779458,104.096097
2759.707975,104.112741
2761.636492,104.136283
2763.565009,104.157841
2765.493526,104.171008
2767.422043,104.168500
2769.350560,104.159462
2771.279077,104.162738
2773.207594,104.175426
2775.136111,104.176444
2777.064629,104.162231
2778.993146,104.148174
2780.921663,104.138389
2782.850180,104.122561
2784.778697,104.095108
2786.707214,104.060652
2788.635731,104.025488
2790.564248,103.991314
2792.492765,103.958240
2794.421283,103.930887
2796.349800,103.915622
2798.278317,103.904041
2800.206834,103.870503
2802.135351,103.803479
2804.063868,103.721104
2805.992385,103.645805
2807.920902,103.583963
2809.849419,103.526701
2811.777936,103.457482
2813.706454,103.366721
2815.634971,103.258166
2817.563488,103.136653
2819.492005,103.002866
2821.420522,102.859266
2823.349039,102.703588
2825.277556,102.526509
2827.206073,102.324100
2829.134590,102.092909
2831.063107,101.822225
2832.991625,101.509100
2834.920142,101.156616
2836.848659,100.761173
2838.777176,100.333329
2840.705693,99.906291
2842.634210,99.501081
2844.562727,99.106435
2846.491244,98.705898
2848.419761,98.305660
2850.348279,97.930826
2852.276796,97.598475
2854.205313,97.308461
2856.133830,97.058637
2858.062347,96.850117
2859.990864,96.672935
2861.919381,96.493563
2863.847898,96.269468
2865.776415,95.988494
2867.704932,95.697878
2869.633450,95.493497
2871.561967,95.469495
2873.490484,95.664120
2875.419001,96.040575
2877.347518,96.501555
2879.276035,96.923592
2881.204552,97.207655
2883.133069,97.319094
2885.061586,97.272296
2886.990103,97.084316
2888.918621,96.764365
2890.847138,96.335551
2892.775655,95.845933
2894.704172,95.353892
2896.632689,94.895730
2898.561206,94.475850
2900.489723,94.092078
2902.418240,93.744252
2904.346757,93.415470
2906.275275,93.071585
2908.203792,92.711328
2910.132309,92.383374
2912.060826,92.115846
2913.989343,91.881910
2915.917860,91.660270
2917.846377,91.452534
2919.774894,91.246039
2921.703411,91.033070
2923.631928,90.852632
2925.560446,90.765180
2927.488963,90.806423
2929.417480,90.979831
2931.345997,91.270193
2933.274514,91.656218
2935.203031,92.110206
2937.131548,92.571495
2939.060065,92.952715
2940.988582,93.178534
2942.917099,93.187098
2944.845617,92.924766
2946.774134,92.380392
2948.702651,91.610596
2950.631168,90.736463
2952.559685,89.923018
2954.488202,89.319306
2956.416719,89.014584
2958.345236,89.052391
2960.273753,89.443249
2962.202271,90.155190
2964.130788,91.123554
2966.059305,92.267837
2967.987822,93.492962
2969.916339,94.708998
2971.844856,95.856745
2973.773373,96.905353
2975.701890,97.835750
2977.630407,98.626720
2979.558924,99.270123
2981.487442,99.803031
2983.415959,100.270320
2985.344476,100.675613
2987.272993,101.004202
2989.201510,101.256895
2991.130027,101.454248
2993.058544,101.623878
2994.987061,101.769627
2996.915578,101.869793
2998.844095,101.907072
3000.772613,101.888456
3002.701130,101.851508
3004.629647,101.832515
3006.558164,101.833983
3008.486681,101.853003
3010.415198,101.896334
3012.343715,101.949047
3014.272232,101.976184
3016.200749,101.957058
3018.129267,101.895837
3020.057784,101.804703
3021.986301,101.687097
3023.914818,101.553910
3025.843335,101.446402
3027.771852,101.398952
3029.700369,101.397673
3031.628886,101.419134
3033.557403,101.462805
3035.485920,101.517468
3037.414438,101.556346
3039.342955,101.572546
3041.271472,101.582849
3043.199989,101.611034
3045.128506,101.677007
3047.057023,101.781389
3048.985540,101.892501
3050.914057,101.962894
3052.842574,101.971943
3054.771091,101.939017
3056.699609,101.888839
3058.628126,101.828698
3060.556643,101.772665
3062.485160,101.755392
3064.413677,101.798765
3066.342194,101.888182
3068.270711,101.995431
3070.199228,102.114016
3072.127745,102.264711
3074.056262,102.463164
3075.984780,102.690855
3077.913297,102.903690
3079.841814,103.062915
3081.770331,103.170636
3083.698848,103.266901
3085.627365,103.367366
3087.555882,103.440846
3089.484399,103.477300
3091.412916,103.525058
3093.341434,103.621448
3095.269951,103.740431
3097.198468,103.843485
3099.126985,103.921733
3101.055502,103.967947
3102.984019,103.973728
3104.912536,103.961991
3106.841053,103.975680
3108.769570,104.028376
3110.698087,104.093810
3112.626605,104.149354
3114.555122,104.191224
3116.483639,104.213703
3118.412156,104.218496
3120.340673,104.225997
3122.269190,104.249421
3124.197707,104.274724
3126.126224,104.280101
3128.054741,104.268587
3129.983258,104.261467
3131.911776,104.258964
3133.840293,104.243381
3135.768810,104.226251
3137.697327,104.239751
3139.625844,104.279154
3141.554361,104.306582
3143.482878,104.309876
3145.411395,104.318808
3147.339912,104.354878
3149.268430,104.395580
3151.196947,104.411018
3153.125464,104.403941
3155.053981,104.394755
3156.982498,104.398442
3158.911015,104.410766
3160.839532,104.407194
3162.768049,104.378123
3164.696566,104.345780
3166.625083,104.326811
3168.553601,104.312044
3170.482118,104.299379
3172.410635,104.312666
3174.339152,104.360639
3176.267669,104.406313
3178.196186,104.408593
3180.124703,104.370663
3182.053220,104.329885
3183.981737,104.318934
3185.910254,104.339529
3187.838772,104.366512
3189.767289,104.381716
3191.695806,104.395761
3193.624323,104.425238
3195.552840,104.459350
3197.481357,104.475534
3199.409874,104.476961
3201.338391,104.479146
3203.266908,104.475363
3205.195426,104.451022
3207.123943,104.422048
3209.052460,104.420665
3210.980977,104.446497
3212.909494,104.479341
3214.838011,104.515925
3216.766528,104.544710
3218.695045,104.540918
3220.623562,104.516118
3222.552079,104.509091
3224.480597,104.526284
3226.409114,104.544060
3228.337631,104.552844
3230.266148,104.561060
3232.194665,104.571240
3234.123182,104.576982
3236.051699,104.573008
3237.980216,104.562148
3239.908733,104.560866
3241.837250,104.582552
3243.765768,104.611679
3245.694285,104.623502
3247.622802,104.620888
3249.551319,104.621207
3251.479836,104.629069
3253.408353,104.641148
3255.336870,104.654036
3257.265387,104.660900
3259.193904,104.660137
3261.122422,104.663442
3263.050939,104.672311
3264.979456,104.661875
3266.907973,104.619232
3268.836490,104.572857
3270.765007,104.555603
3272.693524,104.570433
3274.622041,104.601922
3276.550558,104.631240
3278.479075,104.644284
3280.407593,104.640316
3282.336110,104.630686
3284.264627,104.626243
3286.193144,104.625954
3288.121661,104.626446
3290.050178,104.632982
3291.978695,104.647812
3293.907212,104.659828
3295.835729,104.651940
3297.764246,104.623233
3299.692764,104.598997
3301.621281,104.601679
3303.549798,104.623493
3305.478315,104.635074
3307.406832,104.617082
3309.335349,104.585824
3311.263866,104.566328
3313.192383,104.551358
3315.120900,104.527572
3317.049417,104.503825
3318.977935,104.482061
3320.906452,104.451143
3322.834969,104.412915
3324.763486,104.378395
3326.692003,104.356669
3328.620520,104.348744
3330.549037,104.338364
3332.477554,104.314230
3334.406071,104.289420
3336.334589,104.269611
3338.263106,104.235252
3340.191623,104.183146
3342.120140,104.143393
3344.048657,104.131060
3345.977174,104.123002
3347.905691,104.096802
3349.834208,104.054980
3351.762725,104.008949
3353.691242,103.970339
3355.619760,103.951223
3357.548277,103.944409
3359.476794,103.919826
3361.405311,103.865455
3363.333828,103.803919
3365.262345,103.759332
3367.190862,103.737408
3369.119379,103.730861
3371.047896,103.724937
3372.976413,103.704088
3374.904931,103.659539
3376.833448,103.589199
3378.761965,103.491982
3380.690482,103.373012
3382.618999,103.257330
3384.547516,103.180581
3386.476033,103.153400
3388.404550,103.146333
3390.333067,103.122833
3392.261585,103.076253
3394.190102,103.028331
3396.118619,103.002764
3398.047136,103.013978
3399.975653,103.062648
3401.904170,103.119051
3403.832687,103.143883
3405.761204,103.142845
3407.689721,103.155381
3409.618238,103.189276
3411.546756,103.219301
3413.475273,103.247990
3415.403790,103.312611
3417.332307,103.418281
3419.260824,103.524262
3421.189341,103.612096
3423.117858,103.711530
3425.046375,103.844968
3426.974892,103.986825
3428.903409,104.094131
3430.831927,104.160670
3432.760444,104.207042
3434.688961,104.237533
3436.617478,104.255887
3438.545995,104.286064
3440.474512,104.340075
3442.403029,104.399940
3444.331546,104.445044
3446.260063,104.468555
3448.188581,104.475436
3450.117098,104.487111
3452.045615,104.520776
3453.974132,104.557137
3455.902649,104.564420
3457.831166,104.553723
3459.759683,104.564652
3461.688200,104.608629
3463.616717,104.661968
3465.545234,104.690689
3467.473752,104.678844
3469.402269,104.648983
3471.330786,104.636243
3473.259303,104.649521
3475.187820,104.671215
3477.116337,104.682471
3479.044854,104.690057
3480.973371,104.714630
3482.901888,104.750516
3484.830405,104.774360
3486.758923,104.784181
3488.687440,104.790440
3490.615957,104.789993
3492.544474,104.775464
3494.472991,104.759063
3496.401508,104.756674
3498.330025,104.756850
3500.258542,104.745726
3502.187059,104.739399
3504.115577,104.752751
3506.044094,104.765958
3507.972611,104.761200
3509.901128,104.752153
3511.829645,104.760717
3513.758162,104.794190
3515.686679,104.844875
3517.615196,104.886978
3519.543713,104.891824
3521.472230,104.859740
3523.400748,104.826586
3525.329265,104.830006
3527.257782,104.862409
3529.186299,104.883002
3531.114816,104.876678
3533.043333,104.863692
3534.971850,104.859173
3536.900367,104.857398
3538.828884,104.854298
3540.757401,104.860206
3542.685919,104.876737
3544.614436,104.888364
3546.542953,104.889261
3548.471470,104.884263
3550.399987,104.864653
3552.328504,104.830886
3554.257021,104.806178
3556.185538,104.802091
3558.114055,104.811754
3560.042572,104.832715
3561.971090,104.863978
3563.899607,104.882324
3565.828124,104.842703
3567.756641,104.763509
3569.685158,104.732502
3571.613675,104.754180
3573.542192,104.794568
3575.470709,104.835023
3577.399226,104.858490
3579.327744,104.855954
3581.256261,104.833426
3583.184778,104.805910
3585.113295,104.790547
3587.041812,104.791523
3588.970329,104.794965
3590.898846,104.793193
3592.827363,104.785708
3594.755880,104.773003
3596.684397,104.763924
3598.612915,104.763662
3600.541432,104.767082
3602.469949,104.770913
3604.398466,104.774342
3606.326983,104.767967
3608.255500,104.738996
3610.184017,104.688622
3612.112534,104.622186
3614.041051,104.558489
3615.969568,104.532948
3617.898086,104.546665
3619.826603,104.571521
3621.755120,104.599466
3623.683637,104.639294
3625.612154,104.687696
3627.540671,104.717459
3629.469188,104.698752
3631.397705,104.663859
3633.326222,104.631419
3635.254740,104.584150
3637.183257,104.526682
3639.111774,104.481371
3641.040291,104.463428
3642.968808,104.471804
3644.897325,104.488332
3646.825842,104.480128
3648.754359,104.432335
3650.682876,104.416806
3652.611393,104.439227
3654.539911,104.426539
3656.468428,104.355785
3658.396945,104.274580
3660.325462,104.227584
3662.253979,104.203031
3664.182496,104.176472
3666.111013,104.135857
3668.039530,104.079578
3669.968047,104.032138
3671.896564,104.021526
3673.825082,103.995383
3675.753599,103.908300
3677.682116,103.844257
3679.610633,103.853385
3681.539150,103.891372
3683.467667,103.913495
3685.396184,103.886515
3687.324701,103.799810
3689.253218,103.703512
3691.181736,103.676880
3693.110253,103.689683
3695.038770,103.702998
3696.967287,103.721940
3698.895804,103.734718
3700.824321,103.729015
3702.752838,103.739433
3704.681355,103.783461
3706.609872,103.824537
3708.538389,103.838433
3710.466907,103.834063
3712.395424,103.848866
3714.323941,103.892211
3716.252458,103.929139
3718.180975,103.935128
3720.109492,103.916222
3722.038009,103.914914
3723.966526,103.975768
3725.895043,104.075601
3727.823560,104.145994
3729.752078,104.173666
3731.680595,104.185759
3733.609112,104.184970
3735.537629,104.169673
3737.466146,104.179406
3739.394663,104.204179
3741.323180,104.210467
3743.251697,104.209625
3745.180214,104.251717
3747.108732,104.321087
3749.037249,104.358252
3750.965766,104.386435
3752.894283,104.452728
3754.822800,104.514337
3756.751317,104.536804
3758.679834,104.533186
3760.608351,104.535178
3762.536868,104.555741
3764.465385,104.589731
3766.393903,104.624103
3768.322420,104.626480
3770.250937,104.577147
3772.179454,104.523251
3774.107971,104.515683
3776.036488,104.546285
3777.965005,104.582368
3779.893522,104.605064
3781.822039,104.616582
3783.750556,104.617835
3785.679074,104.605310
3787.607591,104.585620
3789.536108,104.578888
3791.464625,104.604206
3793.393142,104.649747
3795.321659,104.671709
3797.250176,104.648024
3799.178693,104.603591
3801.107210,104.571887
3803.035728,104.580649
3804.964245,104.616111
3806.892762,104.642829
3808.821279,104.662974
3810.749796,104.698661
3812.678313,104.750634
3814.606830,104.791884
3816.535347,104.786067
3818.463864,104.754276
3820.392381,104.746231
3822.320899,104.756764
3824.249416,104.755044
3826.177933,104.736114
3828.106450,104.712961
3830.034967,104.697896
3831.963484,104.696537
3833.892001,104.721969
3835.820518,104.784058
3837.749035,104.852184
3839.677552,104.869577
3841.606070,104.843838
3843.534587,104.830852
3845.463104,104.857887
3847.391621,104.910050
3849.320138,104.961668
3851.248655,104.989977
3853.177172,104.946721
3855.105689,104.857453
3857.034206,104.828496
3858.962723,104.854952
3860.891241,104.899931
3862.819758,104.943070
3864.748275,104.981393
3866.676792,104.997216
3868.605309,104.958350
3870.533826,104.889776
3872.462343,104.875703
3874.390860,104.918501
3876.319377,104.951772
3878.247895,104.946736
3880.176412,104.932124
3882.104929,104.949381
3884.033446,104.976994
3885.961963,104.986629
3887.890480,105.000802
3889.818997,105.010712
3891.747514,104.982031
3893.676031,104.946629
3895.604548,104.944057
3897.533066,104.945212
3899.461583,104.907406
3901.390100,104.832679
3903.318617,104.777943
3905.247134,104.790459
3907.175651,104.846571
3909.104168,104.901519
3911.032685,104.942358
3912.961202,104.974948
3914.889719,105.002198
3916.818237,105.025742
3918.746754,105.046699
3920.675271,105.063990
3922.603788,105.075626
3924.532305,105.067614
3926.460822,105.035759
3928.389339,105.000044
3930.317856,104.968408
3932.246373,104.944519
3934.174891,104.943910
3936.103408,104.963742
3938.031925,104.992765
3939.960442,105.024976
3941.888959,105.048220
3943.817476,105.067469
3945.745993,105.110775
3947.674510,105.168890
3949.603027,105.191998
3951.531544,105.162712
3953.460062,105.109483
3955.388579,105.052303
3957.317096,105.003943
3959.245613,104.990708
3961.174130,105.017359
3963.102647,105.043229
3965.031164,105.037415
3966.959681,105.013596
3968.888198,104.998390
3970.816715,105.009899
3972.745233,105.045313
3974.673750,105.075695
3976.602267,105.077125
3978.530784,105.051330
3980.459301,105.013996
3982.387818,104.996451
3984.316335,105.027908
3986.244852,105.083912
3988.173369,105.106357
3990.101887,105.086070
3992.030404,105.058426
3993.958921,105.033482
3995.887438,105.003790
3997.815955,104.976845
3999.744472,104.958004
4001.672989,104.952868
